File: data/nanoindent_maps/Duplex Steel 5um.csv
Index,Load,Depth,HARDNESS,MODULUS,H/E,X Position,Y Position,Z Position
Integer,mN,nm,GPa,GPa,None,µm,µm,µm
1,19.99713,494.654,3.67673,223.18,0.01647,0,994.9815,-8.36395
289,19.99802,500.768,3.5803,223.508,0.01602,5.00063,554.974,-4.99561
577,19.99811,494.876,3.66753,226.751,0.01617,10.00125,114.967,-2.03524
865,19.99809,494.794,3.66616,228.436,0.01605,20.0025,674.989,-5.80729
1153,19.99796,524.683,3.24713,217.871,0.0149,25.00312,234.982,-2.74028
1441,19.99741,510.22,3.45759,211.578,0.01634,35.00437,794.9565,-6.92373
1729,19.99766,483.299,3.88222,215.017,0.01806,40.005,354.997,-3.78274
2017,19.99714,493.187,3.69896,224.04,0.01651,50.00625,914.9715,-8.04327
2305,19.99792,500.73,3.58711,219.628,0.01633,55.00687,474.964,-4.80595
2593,19.99776,505.361,3.52426,214.89,0.0164,60.0075,34.95675,-2.01212
2881,19.99743,499.073,3.62646,211.731,0.01713,70.00875,594.979,-5.70739
3169,19.99775,496.82,3.67226,206.481,0.01778,75.00938,154.972,-2.83885
3457,19.9976,472.723,4.04561,228.981,0.01767,85.01062,714.994,-6.86312
3745,19.99813,495.735,3.6242,247.204,0.01466,90.01125,274.987,-3.81069
4033,19.99772,483.109,3.86926,223.439,0.01732,100.0125,834.9615,-8.01389
4321,19.998,476.4447,3.96549,235.534,0.01684,105.013,394.954,-4.82875
4609,19.99806,504.607,3.51762,226.3992,0.01554,115.014,954.9765,-9.15135
4897,19.99759,494.4324,3.69564,214.478,0.01723,120.015,514.969,-5.79289
5185,19.99774,478.293,3.94873,226.425,0.01744,125.016,74.96175,-3.00928
5473,19.99721,490.332,3.81103,192.209,0.01983,135.017,634.984,-6.82465
5761,19.99787,490.21,3.73572,231.318,0.01615,140.0175,194.977,-3.76576
6049,19.9981,496.0328,3.65087,225.6625,0.01618,150.019,754.999,-7.98824
6337,19.99777,487.008,3.81496,216.659,0.01761,155.019,314.992,-4.79513
6625,19.99811,494.89,3.64957,238.412,0.01531,165.021,874.9665,-9.08215
6913,19.99814,486.265,3.78968,238.651,0.01588,170.021,434.959,-5.85505
7201,19.99777,497.602,3.64381,215.063,0.01694,180.0225,994.9815,-10.09237
7489,19.99789,493.524,3.67188,237.963,0.01543,185.023,554.974,-6.84352
7777,19.99792,495.644,3.68688,208.737,0.01766,190.024,114.967,-3.89691
8065,19.99789,489.175,3.77421,218.889,0.01724,200.025,674.989,-7.80823
8353,19.99763,469.649,4.10992,225.8128,0.0182,205.026,234.982,-4.7823
8641,19.99766,500.479,3.62352,201.645,0.01797,215.027,794.9565,-8.97774
8929,19.99817,495.9232,3.62909,241.413,0.01503,220.0275,354.997,-5.84429
9217,19.99789,515.214,3.39135,208.1552,0.01629,230.029,914.9715,-10.03841
9505,19.99723,508.571,3.50218,200.088,0.0175,235.029,474.964,-6.8566
9793,19.99777,483.486,3.88323,212.928,0.01824,240.03,34.95675,-4.0435
10081,19.99802,489.948,3.75964,219.823,0.0171,250.031,594.979,-7.80247
10369,19.99762,485.728,3.81146,230.699,0.01652,255.032,154.972,-4.86545
10657,19.99811,479.266,3.9229,231.106,0.01697,265.033,714.994,-8.94747
10945,19.99781,491.0264,3.73716,222.414,0.0168,270.034,274.987,-5.79203
11233,19.9974,485.06,3.84128,220.315,0.01744,280.035,834.9615,-10.09885
11521,19.99553,1062.67,0.78293,96.04476,0.00815,285.036,394.954,-6.1278
11809,19.99789,483.158,3.87748,218.677,0.01773,295.037,954.9765,-11.14025
12097,19.99741,488.327,3.81869,203.777,0.01874,300.0375,514.969,-7.83962
12385,19.99782,486.359,3.81791,220.976,0.01728,305.038,74.96175,-4.99994
12673,19.99785,485.559,3.83397,219.697,0.01745,315.039,634.984,-8.81869
12961,19.99775,471.84,4.05696,231.676,0.01751,320.04,194.977,-5.79471
13249,19.99807,480.687,3.92069,218.859,0.01791,330.041,754.999,-9.99827
13537,19.99772,491.6693,3.7371,216.5175,0.01726,335.042,314.992,-6.83125
13825,19.99821,500.703,3.56522,234.272,0.01522,345.043,874.9665,-11.14271
14113,19.99806,490.447,3.70814,247.2898,0.015,350.044,434.959,-7.9246
14401,19.99777,496.099,3.64138,231.011,0.01576,360.045,994.9815,-12.19974
14689,19.99738,531.847,3.19396,191.1514,0.01671,365.046,554.974,-8.85019
14977,19.99808,495.099,3.67904,217.784,0.01689,370.046,114.967,-6.02353
15265,19.99771,523.8209,3.27834,204.393,0.01604,380.0475,674.989,-9.87909
15553,19.99758,477.42,3.9787,219.157,0.01815,385.0005,234.982,-6.79011
15841,19.99808,491.097,3.72091,231.526,0.01607,395.002,794.9565,-11.08314
16129,19.99804,498.535,3.59759,234.909,0.01531,400.002,354.997,-7.91522
16417,19.99787,499.977,3.59274,223.342,0.01609,410.004,914.9715,-12.27765
16705,19.99758,496.413,3.66065,216.21,0.01693,415.004,474.964,-8.90106
16993,19.99778,482.91,3.8942,212.52,0.01832,420.005,34.95675,-6.137
17281,19.99785,473.946,4.05646,212.861,0.01906,430.006,594.979,-9.8737
17569,19.99829,503.1809,3.54008,225.749,0.01568,435.007,154.972,-6.93456
17857,19.99793,523.638,3.26964,211.768,0.01544,445.008,714.994,-11.00138
18145,19.99764,480.823,3.91394,221.024,0.01771,450.009,274.987,-7.87089
18433,19.99743,471.556,4.10842,209.974,0.01957,460.01,834.9615,-12.22602
18721,19.99809,494.8649,3.67803,220.533,0.01668,465.0105,394.954,-8.94446
19009,19.99774,479.105,3.96654,210.488,0.01884,475.012,954.9765,-13.2575
19297,19.99773,496.856,3.6436,222.084,0.01641,480.012,514.969,-9.92438
19585,19.99813,505.449,3.51595,219.254,0.01604,485.013,74.96175,-7.15976
19873,19.99775,494.827,3.65155,237.69,0.01536,495.014,634.984,-10.94
20161,19.99772,497.965,3.62778,221.071,0.01641,500.015,194.977,-7.85913
20449,19.99786,499.006,3.58414,239.282,0.01498,510.016,754.999,-12.09072
20737,19.99753,511.22,3.43857,214.365,0.01604,515.017,314.992,-8.8415
21025,19.99793,494.487,3.66436,232.723,0.01575,525.018,874.9665,-13.18535
21313,19.99805,473.068,4.03764,229.846,0.01757,530.019,434.959,-9.90561
21601,19.9971,498.85,3.6256,214.131,0.01693,540.02,994.9815,-14.25431
21889,19.99831,474.762,4.01118,227.361,0.01764,545.0205,554.974,-10.93869
22177,19.9974,516.6429,3.35786,216.738,0.01549,550.021,114.967,-7.95372
22465,19.99804,481.608,3.88148,231.232,0.01679,560.022,674.989,-11.92133
22753,19.99747,1115.88,0.71331,82.34517,0.00866,565.023,234.982,-8.27429
23041,19.99771,494.344,3.71896,203.265,0.0183,575.024,794.9565,-13.14617
23329,19.9982,498.816,3.60787,225.205,0.01602,580.025,354.997,-9.90765
23617,19.99813,490.742,3.72604,231.953,0.01606,590.026,914.9715,-14.32507
23905,19.99777,491.886,3.74626,209.829,0.01785,595.027,474.964,-10.98601
24193,19.9978,494.836,3.66977,225.72,0.01626,600.027,34.95675,-8.15109
24481,19.99777,496.794,3.67659,204.503,0.01798,610.029,594.979,-11.98401
24769,19.99777,471.189,4.09613,218.468,0.01875,615.029,154.972,-9.06654
25057,19.9981,476.675,3.97872,226.043,0.0176,625.0305,714.994,-13.09504
25345,19.99757,484.007,3.85971,220.208,0.01753,630.031,274.987,-9.94855
25633,19.99789,501.146,3.57713,221.826,0.01613,640.032,834.9615,-14.41019
25921,19.99824,487.9586,3.76763,234.691,0.01605,645.033,394.954,-11.11305
26209,19.9977,507.377,3.52454,197.846,0.01781,655.034,954.9765,-15.43608
26497,19.99793,502.269,3.58719,205.984,0.01741,660.035,514.969,-12.07081
26785,19.99779,504.113,3.5129,234.846,0.01496,665.0355,74.96175,-9.24773
27073,19.99816,520.984,3.29918,216.114,0.01527,675.037,634.984,-13.12241
27361,19.99748,472.386,4.06293,223.432,0.01818,680.037,194.977,-10.10178
27649,19.99834,489.015,3.7535,232.574,0.01614,690.039,754.999,-14.31827
27937,19.9981,474.9166,4.00571,228.717,0.01751,695.039,314.992,-11.11661
28225,19.99791,497.139,3.65358,213.7301,0.01709,705.0405,874.9665,-15.47001
28513,19.99798,487.9945,3.7776,228.194,0.01655,710.041,434.959,-12.2282
28801,19.99738,506.771,3.53148,198.956,0.01775,720.042,994.9815,-16.6174
29089,19.99763,502.682,3.57871,207.078,0.01728,725.043,554.974,-13.22497
29377,19.998,469.2777,4.11494,226.862,0.01814,730.044,114.967,-10.34761
29665,19.99732,482.361,3.88774,220.513,0.01763,740.045,674.989,-14.27225
29953,19.99782,505.919,3.52427,209.928,0.01679,745.0455,234.982,-11.14508
30241,19.99774,503.278,3.55447,215.693,0.01648,755.047,794.9565,-15.48069
30529,19.99748,472.467,4.07585,216.633,0.01881,760.047,354.997,-12.26531
30817,19.99767,495.991,3.66608,216.968,0.0169,770.001,914.9715,-16.6701
31105,19.99768,498.285,3.61728,224.436,0.01612,775.002,474.964,-13.24825
31393,19.99836,506.062,3.49935,224.133,0.01561,780.002,34.95675,-10.48407
31681,19.99789,504.7291,3.54911,206.12,0.01722,790.0035,594.979,-14.25293
31969,19.99703,481.664,3.88775,227.02,0.01713,795.004,154.972,-11.27845
32257,19.9981,497.847,3.62819,221.9942,0.01634,805.005,714.994,-15.45499
32545,19.99787,490.706,3.7234,233.972,0.01591,810.006,274.987,-12.28513
32833,19.99767,487.923,3.78656,223.6704,0.01693,820.007,834.9615,-16.5877
33121,19.99781,473.11,4.05159,222.386,0.01822,825.008,394.954,-13.29235
33409,19.99783,503.475,3.55326,214.634,0.01655,835.009,954.9765,-17.72623
33697,19.99798,468.844,4.12932,223.945,0.01844,840.01,514.969,-14.34799
33985,19.99759,488.739,3.77012,225.249,0.01674,845.01,74.96175,-11.43996
34273,19.99805,484.243,3.82758,236.298,0.0162,855.012,634.984,-15.35998
34561,19.99762,510.209,3.42921,230.7578,0.01486,860.012,194.977,-12.26688
34849,19.99707,498.494,3.63092,214.299,0.01694,870.0135,754.999,-16.48283
35137,19.99814,498.935,3.64077,205.339,0.01773,875.014,314.992,-13.28768
35425,19.9981,509.629,3.44285,227.003,0.01517,885.015,874.9665,-17.69751
35713,19.99744,497.667,3.63593,218.975,0.0166,890.016,434.959,-14.31827
36001,19.99751,508.316,3.46567,224.334,0.01545,900.017,994.9815,-18.71435
36289,19.99781,496.632,3.65139,219.5692,0.01663,905.018,554.974,-15.28332
36577,19.99834,481.866,3.84911,248.73,0.01548,910.0185,114.967,-12.42071
36865,19.99774,499.808,3.61717,210.517,0.01718,920.02,674.989,-16.32694
37153,19.99765,481.899,3.89138,222.896,0.01746,925.02,234.982,-13.19838
37441,19.99768,483.433,3.87142,219.306,0.01765,935.022,794.9565,-17.53654
37729,19.99802,486.591,3.78863,235.821,0.01607,940.022,354.997,-14.29971
38017,19.99792,495.029,3.6775,219.293,0.01677,950.0235,914.9715,-18.70364
38305,19.99783,497.765,3.66256,203.723,0.01798,955.024,474.964,-15.28811
38593,19.99761,490.031,3.77137,212.779,0.01772,960.025,34.95675,-12.54352
38881,19.99798,535.364,3.13908,197.274,0.01591,970.026,594.979,-16.28198
39169,19.99791,507.9,3.4773,220.681,0.01576,975.027,154.972,-13.39509
39457,19.99797,503.005,3.55986,214.99,0.01656,985.028,714.994,-17.50827
39745,19.9978,468.148,4.15583,217.958,0.01907,990.0285,274.987,-14.307
40000,19.99752,483.31,3.88166,215.18,0.01804,995.029,0,-12.68896