File: data/nanoindent_maps/Duplex Steel 3p5um.csv
Index,Load,Depth,HARDNESS,MODULUS,H/E,X Position,Y Position,Z Position
Integer,mN,nm,GPa,GPa,None,µm,µm,µm
1,9.99814,342.768,3.71158,221.011,0.01679,0,696.468,-5.88935
284,9.99857,343.684,3.69495,218.5475,0.01691,3.52425,405.9555,-3.92425
567,9.99837,317.294,4.40443,212.986,0.02068,7.00087,115.491,-2.07869
850,9.99828,341.133,3.76829,211.1339,0.01785,14.00175,524.97,-4.65289
1133,9.99868,341.242,3.73943,225.572,0.01658,17.526,234.458,-2.70625
1416,9.99879,343.175,3.68951,228.766,0.01613,24.52688,643.985,-5.46689
1699,9.99845,336.917,3.89451,200.36,0.01944,28.0035,353.473,-3.56635
1982,9.99867,320.483,4.28929,221.185,0.01939,31.52775,62.96025,-1.93304
2265,9.99871,328.963,4.09439,203.522,0.02012,38.52863,472.488,-4.48675
2548,9.99853,342.824,3.708,222.423,0.01667,42.00525,181.975,-2.60027
2831,9.9985,346.319,3.67518,197.668,0.01859,49.00613,591.455,-5.31111
3114,9.99842,330.7123,4.04693,203.653,0.01987,52.53037,300.99,-3.45115
3397,9.99817,337.158,3.87259,207.341,0.01868,56.007,10.4775,-1.8289
3680,9.99848,327.817,4.10798,210.63,0.0195,63.00787,419.957,-4.43853
3963,9.9986,346.123,3.63334,222.263,0.01635,66.53213,129.492,-2.61612
4246,9.99857,347.387,3.61684,215.369,0.01679,73.533,538.972,-5.30972
4529,9.99881,339.1117,3.78583,227.875,0.01661,77.00962,248.46,-3.3937
4812,9.99854,320.7171,4.2693,226.962,0.01881,84.0105,657.987,-6.20312
5095,9.99838,324.899,4.16667,219.92,0.01895,87.53475,367.4745,-4.31927
5378,9.9984,321.573,4.27932,212.271,0.02016,91.01138,76.962,-2.66283
5661,9.99841,333.121,3.94545,221.201,0.01784,98.01225,486.489,-5.26581
5944,9.99834,329.066,4.07164,211.7151,0.01923,101.5365,195.977,-3.37236
6227,9.99851,333.934,3.90572,231.525,0.01687,108.537,605.457,-6.13285
6510,9.99842,337.194,3.87166,207.406,0.01867,112.014,314.992,-4.29327
6793,9.99807,346.335,3.67484,197.579,0.0186,115.538,24.47925,-2.6488
7076,9.99826,340.352,3.77545,217.044,0.01739,122.539,433.959,-5.30896
7359,9.99853,325.021,4.16289,220.126,0.01891,126.016,143.494,-3.38593
7642,9.99855,338.646,3.80529,223.069,0.01706,133.017,552.974,-6.15391
7925,9.99906,291.094,5.29806,221.807,0.02389,136.541,262.461,-4.21893
8208,9.99864,347.289,3.6164,216.891,0.01667,143.542,671.989,-7.04562
8491,9.99859,329.699,4.04717,215.115,0.01881,147.018,381.476,-5.21466
8774,9.99861,326.651,4.15129,206.062,0.02015,150.543,90.96375,-3.46556
9057,9.99866,333.957,3.88675,242.564,0.01602,157.5435,500.491,-6.16402
9340,9.99862,337.434,3.83937,220.515,0.01741,161.02,209.979,-4.24591
9623,9.99827,337.864,3.85299,208.363,0.01849,168.021,619.458,-7.02617
9906,9.99859,334.634,3.91611,216.756,0.01807,171.545,328.9935,-5.15287
10189,9.99845,353.172,3.52481,196.887,0.0179,175.022,38.481,-3.48823
10472,9.99849,351.329,3.55255,203.087,0.01749,182.023,447.961,-6.20879
10755,9.99839,321.973,4.26847,211.987,0.02014,185.547,157.496,-4.26079
11038,9.99841,340.307,3.80622,202.47,0.0188,192.5,566.976,-7.04271
11321,9.99833,331.389,4.02193,206.564,0.01947,196.0245,276.463,-5.14907
11604,9.99843,341.804,3.75371,210.504,0.01783,203.025,685.9905,-7.95885
11887,9.99871,343.177,3.69064,228.002,0.01619,206.502,395.478,-6.15289
12170,9.99836,331.631,3.97089,227.741,0.01744,210.026,104.9655,-4.38324
12453,9.99898,332.5162,3.96552,219.029,0.0181,217.027,514.493,-7.0991
12736,9.9986,348.951,3.58073,216.305,0.01655,220.504,223.98,-5.0662
13019,9.99816,383.674,2.98352,177.97,0.01676,227.505,633.46,-7.94463
13302,9.9984,323.677,4.21606,213.461,0.01975,231.029,342.995,-6.10236
13585,9.99871,330.223,4.00722,227.854,0.01759,234.5055,52.48275,-4.42108
13868,9.99858,337.32,3.83556,224.075,0.01712,241.506,461.9625,-7.05802
14151,9.9984,320.108,4.30757,218.069,0.01975,245.031,171.498,-5.12114
14434,9.99879,338.904,3.79712,224.233,0.01693,252.0315,580.977,-7.97005
14717,9.99863,331.679,4.0004,212.719,0.01881,255.508,290.465,-6.02649
15000,9.99865,329.902,4.07196,202.363,0.02012,259.032,0,-4.39135
15283,9.99858,340.178,3.73961,241.073,0.01551,266.033,409.48,-7.05829
15566,9.99848,348.336,3.5815,224.043,0.01599,269.51,118.967,-5.20455
15849,9.99873,325.412,4.18242,207.414,0.02016,276.511,528.495,-7.93579
16132,9.99853,337.904,3.8435,212.506,0.01809,280.035,237.982,-5.99279
16415,9.99835,344.19,3.72296,198.334,0.01877,287.036,647.462,-8.88664
16698,9.99861,331.296,4.01033,212.7463,0.01885,290.5125,356.997,-6.98629
16981,9.99838,333.071,3.95515,217.018,0.01823,294.037,66.4845,-5.25593
17264,9.99851,342.589,3.73068,212.9,0.01752,301.038,475.964,-7.93821
17547,9.9985,330.366,4.05038,206.032,0.01966,304.514,185.499,-6.00212
17830,9.9987,329.591,3.99821,241.97,0.01652,311.515,594.979,-8.88543
18113,9.99852,333.639,3.93069,222.039,0.0177,315.039,304.467,-6.927
18396,9.99827,342.481,3.76544,197.344,0.01908,318.516,13.95413,-5.26682
18679,9.99871,331.696,3.97118,226.785,0.01751,325.517,423.4815,-7.95784
18962,9.99798,333.8012,3.94937,210.87,0.01873,329.041,132.969,-6.05044
19245,9.99874,335.619,3.85956,234.166,0.01648,336.042,542.496,-8.76746
19528,9.99856,316.601,4.40097,222.562,0.01977,339.519,251.984,-6.85467
19811,9.99811,342.92,3.75077,199.217,0.01883,346.5195,661.464,-9.75744
20094,9.99884,333.462,3.9159,232.531,0.01684,350.044,370.999,-7.85996
20377,9.99856,336.249,3.88789,210.831,0.01844,353.52,80.48625,-6.07653
20660,9.99839,350.971,3.5893,189.0584,0.01899,360.521,489.966,-8.77406
20943,9.99815,346.064,3.67478,200.547,0.01832,364.0455,199.4535,-6.79718
21226,9.99866,351.37,3.55869,199.493,0.01784,371.046,608.981,-9.64266
21509,9.99881,340.906,3.76658,214.903,0.01753,374.523,318.468,-7.7071
21792,9.99835,336.339,3.89416,206.843,0.01883,378.047,27.95588,-6.09978
22075,9.99859,345.038,3.66738,216.658,0.01693,385.0005,437.483,-8.71977
22358,9.99854,325.9389,4.14004,219.026,0.0189,388.525,146.971,-6.82329
22641,9.9986,338.57,3.83201,210.195,0.01823,395.526,556.498,-9.55195
22924,9.99869,330.817,3.99909,224.102,0.01784,399.002,265.986,-7.63407
23207,9.99864,325.5461,4.1821,206.056,0.0203,406.003,675.465,-10.48099
23490,9.99858,339.47,3.77246,230.708,0.01635,409.527,384.953,-8.58816
23773,9.99862,346.449,3.63674,215.9745,0.01684,413.004,94.488,-6.74505
24056,9.99869,337.696,3.82257,226.258,0.01689,420.005,503.968,-9.51327
24339,9.9982,344.483,3.70712,202.526,0.0183,423.529,213.455,-7.46389
24622,9.9988,348.748,3.58929,213.961,0.01678,430.53,622.983,-10.30176
24905,9.99859,346.403,3.64518,211.833,0.01721,434.007,332.47,-8.39248
25188,9.99866,338.8348,3.80558,220.447,0.01726,437.531,41.95763,-6.7308
25471,9.99862,335.523,3.88587,220.807,0.0176,444.532,451.485,-9.4049
25754,9.99836,338.643,3.79188,230.8,0.01643,448.008,160.9725,-7.48081
26037,9.99847,337.3589,3.86469,208.76,0.01851,455.009,570.5,-10.24553
26320,9.99869,333.298,3.93728,223.136,0.01765,458.5335,279.987,-8.32762
26603,9.99881,343.5695,3.69901,217.809,0.01698,465.534,689.467,-11.28042
26886,9.99873,346.996,3.64699,203.905,0.01789,469.011,398.955,-9.23255
27169,9.9992,346.084,3.62382,228.925,0.01583,472.535,108.49,-7.45069
27452,9.9984,337.045,3.88903,201.328,0.01932,479.536,517.9695,-10.18671
27735,9.99827,334.838,3.96471,193.418,0.0205,483.013,227.457,-8.18989
28018,9.9982,335.611,3.91441,205.945,0.01901,490.014,636.984,-11.07418
28301,9.99873,327.638,4.10314,214.854,0.0191,493.538,346.472,-9.15017
28584,9.99839,343.009,3.75461,196.618,0.0191,497.0145,55.95938,-7.43401
28867,9.99858,333.0036,3.95398,218.474,0.0181,504.015,465.487,-10.1248
29150,9.99887,340.002,3.75216,235.611,0.01593,507.54,174.974,-8.20972
29433,9.99847,332.867,3.96647,214.149,0.01852,514.5405,584.454,-11.06307
29716,9.99861,353.808,3.48446,211.656,0.01646,518.017,293.989,-9.10169
29999,9.99829,332.3815,3.94091,233.667,0.01687,521.541,3.47663,-7.46174
30282,9.99863,350.015,3.54621,223.358,0.01588,528.542,412.956,-10.08365
30565,9.9984,340.082,3.8038,206.1017,0.01846,532.019,122.4915,-8.19979
30848,9.99841,326.925,4.12102,215.454,0.01913,539.02,531.971,-11.01128
31131,9.99844,347.354,3.64453,201.048,0.01813,542.544,241.459,-9.00867
31414,9.99859,337.115,3.81674,238.0838,0.01603,549.545,650.986,-11.96364
31697,9.99824,339.498,3.80812,210.7803,0.01807,553.0215,360.474,-10.00433
31980,9.99843,347.6737,3.61179,214.579,0.01683,556.546,69.96113,-8.22853
32263,9.99855,342.958,3.70073,224.894,0.01646,563.547,479.4885,-10.99281
32546,9.99831,331.704,3.9827,220.7222,0.01804,567.023,188.976,-8.99216
32829,9.99833,332.875,3.97048,212.162,0.01871,574.024,598.456,-11.8242
33112,9.99849,334.786,3.91035,217.689,0.01796,577.501,307.991,-9.96289
33395,9.99856,334.613,3.96125,197.053,0.0201,581.025,17.47838,-8.20267
33678,9.99832,332.647,3.98341,208.993,0.01906,588.026,426.958,-10.91051
33961,9.99853,329.187,4.048,221.056,0.01831,591.5025,136.493,-9.07134
34244,9.99907,346.492,3.6412,213.031,0.01709,598.503,545.973,-11.80082
34527,9.99852,348.805,3.59256,211.335,0.017,602.028,255.4605,-9.81868
34810,9.99818,335.601,3.88078,222.358,0.01745,609.0285,664.988,-12.75413
35093,9.99872,343.467,3.69555,221.093,0.01671,612.505,374.475,-10.80742
35376,9.99853,343.1657,3.70442,219.943,0.01684,616.029,83.96288,-8.96806
35659,9.99803,347.932,3.61129,211.545,0.01707,623.03,493.49,-11.73583
35942,9.99858,334.998,3.87894,231.724,0.01674,626.507,202.978,-9.75337
36225,9.99876,348.503,3.58005,222.73,0.01607,633.508,612.4575,-12.61978
36508,9.99828,346.606,3.66054,201.478,0.01817,637.032,321.993,-10.63823
36791,9.9983,346.105,3.67597,199.568,0.01842,640.509,31.48013,-8.98855
37074,9.99824,336.117,3.88658,212.963,0.01825,647.5095,440.96,-11.62805
37357,9.99847,333.803,3.93512,217.716,0.01807,651.034,150.495,-9.75653
37640,9.99872,341.073,3.75943,216.587,0.01736,658.035,559.975,-12.56574
37923,9.9986,348.3365,3.60386,210.818,0.01709,661.511,269.462,-10.55117
38206,9.99815,322.411,4.27199,205.772,0.02076,668.512,678.99,-13.46885
38489,9.99865,336.678,3.86669,215.9886,0.0179,672.036,388.477,-11.58189
38772,9.99826,319.394,4.32069,221.28,0.01953,675.513,97.96463,-9.73674
39055,9.9982,343.588,3.70135,216.126,0.01713,682.514,507.492,-12.48515
39338,9.9986,345.226,3.65364,222.166,0.01645,686.038,216.9795,-10.44961
39621,9.99854,336.961,3.89207,200.948,0.01937,693.039,626.459,-13.3581
39904,9.9984,339.965,3.76513,228.04,0.01651,696.516,335.994,-11.38568
40000,9.99863,340.539,3.75599,225.524,0.01665,696.516,0,-9.39701