File: data/nanoindent_maps/Duplex Steel 1um.csv
Index,Load,Depth,HARDNESS,MODULUS,H/E,X Position,Y Position,Z Position
Integer,mN,nm,GPa,GPa,None,µm,µm,µm
1,1.24953,110.907,3.77186,189.576,0.0199,0,198.977,-2.40336
285,1.24963,102.485,4.43122,191.663,0.02312,1.00012,114.967,-1.72785
569,1.24935,102.174,4.53517,172.417,0.0263,2.00025,30.95625,-1.08649
853,1.2495,122.989,3.16035,144.957,0.0218,4.0005,146.971,-1.6009
1137,1.24969,102.337,4.41125,201.854,0.02185,5.00063,62.96025,-1.07755
1421,1.24964,102.278,4.39748,208.13,0.02113,7.00087,178.975,-1.74082
1705,1.24966,101.27,4.49194,206.796,0.02172,8.001,94.96425,-1.20354
1989,1.24959,100.826,4.55032,201.255,0.02261,9.00112,10.95375,-0.61924
2273,1.24941,107.423,4.03213,187.576,0.0215,11.00137,126.968,-1.25172
2557,1.2495,113.582,3.67886,159.122,0.02312,12.0015,42.95775,-0.69707
2841,1.24964,101.096,4.65316,169.642,0.02743,14.00175,158.972,-1.43972
3125,1.24927,119.187,3.29821,170.972,0.01929,15.00188,74.96175,-0.89189
3409,1.24955,107.332,4.02975,190.976,0.0211,17.00212,190.976,-1.61734
3693,1.24966,98.64344,4.69511,221.764,0.02117,18.00225,106.966,-1.12633
3977,1.24943,106.18,4.10667,195.411,0.02102,19.00237,22.95525,-0.55743
4261,1.24975,105.225,4.2191,184.625,0.02285,21.00263,138.97,-1.20615
4545,1.24956,107.34,4.04551,185.451,0.02181,22.00275,54.95925,-0.7075
4829,1.24974,101.76,4.46869,200.128,0.02233,24.003,170.974,-1.50248
5113,1.2496,102.178,4.48439,184.7141,0.02428,25.00312,86.96325,-0.91677
5397,1.24975,103.856,4.27619,203.11,0.02105,26.00325,2.95275,-0.36251
5681,1.24933,99.45433,4.67273,203.395,0.02297,28.0035,118.967,-1.12189
5965,1.24951,105.745,4.17409,184.956,0.02257,29.00362,34.95675,-0.59532
6249,1.2493,102.391,4.47072,182.8789,0.02445,31.00387,150.971,-1.31206
6533,1.24947,119.556,3.31234,157.659,0.02101,32.004,66.96075,-0.81807
6817,1.24959,124.5605,3.01654,171.011,0.01764,34.00425,182.975,-1.59552
7101,1.24964,101.246,4.49606,206.1282,0.02181,35.00437,98.96475,-1.10958
7385,1.2495,102.296,4.36757,218.318,0.02001,36.0045,14.95425,-0.55693
7669,1.24929,108.184,3.98453,183.851,0.02167,38.00475,130.969,-1.22044
7953,1.2493,112.791,3.70711,166.532,0.02226,39.00487,46.95825,-0.72969
8237,1.24941,104.287,4.28484,188.1187,0.02278,41.00512,162.973,-1.5004
8521,1.24951,99.09439,4.67392,213.984,0.02184,42.00525,78.96225,-0.99993
8805,1.24952,124.036,3.03401,175.215,0.01732,44.0055,194.977,-1.7171
9089,1.24968,109.219,3.89983,186.9172,0.02086,45.00562,110.966,-1.24594
9373,1.24941,101.654,4.50942,190.69,0.02365,46.00575,26.95575,-0.66708
9657,1.24972,103.378,4.28224,215.816,0.01984,48.006,142.97,-1.36312
9941,1.24948,118.065,3.38625,162.174,0.02088,49.00613,58.95975,-0.90812
10225,1.24951,103.195,4.29987,214.632,0.02003,51.00637,174.974,-1.69195
10509,1.24959,99.44595,4.71031,193.638,0.02433,52.0065,90.96375,-1.14968
10793,1.24944,105.469,4.20006,183.901,0.02284,53.00662,6.95325,-0.56163
11077,1.24954,112.339,3.759,160.641,0.0234,55.00687,122.968,-1.32289
11361,1.24942,98.29875,4.84442,189.092,0.02562,56.007,38.95725,-0.82248
11645,1.24957,99.90302,4.69025,187.333,0.02504,58.00725,154.972,-1.53639
11929,1.24979,98.68104,4.67996,226.011,0.02071,59.00738,70.96125,-1.11948
12213,1.24946,113.695,3.63497,170.508,0.02132,61.00762,186.976,-1.84874
12497,1.24952,103.721,4.32396,191.076,0.02263,62.00775,102.965,-1.33243
12781,1.24968,117.036,3.41275,175.72,0.01942,63.00787,18.95475,-0.75707
13065,1.24972,101.925,4.52865,179.634,0.02521,65.00813,134.969,-1.48966
13349,1.2494,96.38418,4.99994,200.465,0.02494,66.00825,50.95875,-0.9962
13633,1.24953,103.227,4.36814,190.722,0.0229,68.0085,166.973,-1.78209
13917,1.24968,95.03971,5.16239,197.911,0.02608,69.00862,82.96275,-1.23513
14201,1.24967,102.6913,4.37406,203.779,0.02146,71.00888,198.977,-2.02201
14485,1.24967,103.392,4.30395,207.094,0.02078,72.009,114.967,-1.45313
14769,1.24976,102.682,4.44306,183.694,0.02419,73.00912,30.95625,-0.94239
15053,1.24953,101.1,4.56885,188.785,0.0242,75.00937,146.971,-1.64539
15337,1.24953,99.7636,4.66141,198.31,0.02351,76.0095,62.96025,-1.16853
15621,1.24942,101.837,4.46989,197.2156,0.02266,78.00975,178.975,-1.92522
15905,1.24971,99.7978,4.59784,217.199,0.02117,79.00987,94.96425,-1.39643
16189,1.24957,100.9418,4.51085,210.3628,0.02144,80.01,10.95375,-0.83276
16473,1.24936,105.286,4.21147,184.9052,0.02278,82.01025,126.968,-1.59674
16757,1.24953,104.4354,4.26834,189.443,0.02253,83.01037,42.95775,-1.08064
17041,1.24952,100.873,4.64917,174.916,0.02658,85.01062,158.972,-1.81515
17325,1.24957,99.41449,4.75173,184.314,0.02578,86.01075,74.96175,-1.37505
17609,1.24957,104.899,4.23281,188.444,0.02246,88.011,190.976,-2.06172
17893,1.24966,98.26146,4.86308,185.998,0.02615,89.01112,106.966,-1.55097
18177,1.24979,101.604,4.45967,207.625,0.02148,90.01125,22.95525,-1.03639
18461,1.24958,101.759,4.5052,189.391,0.02379,92.0115,138.97,-1.75747
18745,1.24946,102.6908,4.43416,185.504,0.0239,93.01163,54.95925,-1.26375
19029,1.24927,101.163,4.57698,184.893,0.02475,95.01187,170.974,-1.97189
19313,1.24964,96.65384,4.96628,201.865,0.0246,96.012,86.96325,-1.49901
19597,1.24974,101.498,4.46204,210.009,0.02125,97.01213,2.95275,-0.92159
19881,1.24975,96.88512,4.86191,225.0765,0.0216,99.01237,118.967,-1.74747
20165,1.24942,111.915,3.74133,175.085,0.02137,100.0125,34.95675,-1.21395
20449,1.24945,99.21467,4.74326,190.977,0.02484,102.013,150.971,-1.93444
20733,1.24943,105.28,4.2186,183.046,0.02305,103.013,66.96075,-1.4492
21017,1.24942,108.005,4.05017,168.632,0.02402,105.013,182.975,-2.14892
21301,1.24973,118.742,3.31836,173.732,0.0191,106.013,98.96475,-1.64968
21585,1.24957,71.42221,9.58312,212.2996,0.04514,107.013,14.95425,-1.12748
21869,1.24962,100.338,4.62885,192.197,0.02408,109.014,130.969,-1.89093
22153,1.24962,101.571,4.49095,198.451,0.02263,110.014,46.95825,-1.37006
22437,1.24956,103.443,4.34535,191.912,0.02264,112.014,162.973,-2.0894
22721,1.24969,100.708,4.52342,213.581,0.02118,113.014,78.96225,-1.62747
23005,1.24945,105.14,4.21786,186.724,0.02259,115.014,194.977,-2.35554
23289,1.24963,99.46396,4.78948,175.174,0.02734,116.0145,110.966,-1.87588
23573,1.2496,104.443,4.24386,197.107,0.02153,117.015,26.95575,-1.34275
23857,1.24963,103.26,4.36887,189.798,0.02302,119.015,142.97,-2.03639
24141,1.24941,102.338,4.46183,186.588,0.02391,120.015,58.95975,-1.56235
24425,1.24948,100.539,4.58999,197.407,0.02325,122.015,174.974,-2.26804
24709,1.24955,104.537,4.31776,173.5264,0.02488,123.015,90.96375,-1.78082
24993,1.24942,104.876,4.28202,175.051,0.02446,124.0155,6.95325,-1.248
25277,1.24972,107.91,3.98543,191.248,0.02084,126.016,122.968,-2.03794
25561,1.24965,111.307,3.76929,180.292,0.02091,127.016,38.95725,-1.493
25845,1.24953,102.0016,4.44462,200.558,0.02216,129.016,154.972,-2.21688
26129,1.24952,102.973,4.39223,190.209,0.02309,130.016,70.96125,-1.70603
26413,1.24948,104.063,4.37117,170.635,0.02562,132.0165,186.976,-2.43834
26697,1.24952,98.12677,4.89067,182.9482,0.02673,133.017,102.965,-1.9811
26981,1.24961,103.5498,4.29583,205.129,0.02094,134.017,18.95475,-1.43194
27265,1.24933,107.403,4.09459,169.3983,0.02417,136.017,134.969,-2.16864
27549,1.24967,108.086,3.94315,202.31,0.01949,137.017,50.95875,-1.70304
27833,1.24946,98.8906,4.74224,199.638,0.02375,139.017,166.973,-2.37414
28117,1.24951,99.53983,4.68754,197.12,0.02378,140.0175,82.96275,-1.88285
28401,1.24954,105.763,4.20193,176.576,0.0238,142.018,198.977,-2.61475
28685,1.24949,101.115,4.57922,185.706,0.02466,143.018,114.967,-2.14172
28969,1.24969,102.064,4.49103,185.822,0.02417,144.018,30.95625,-1.58212
29253,1.24937,102.656,4.42971,187.473,0.02363,146.018,146.971,-2.29048
29537,1.24959,96.355,4.98284,205.802,0.02421,147.018,62.96025,-1.82001
29821,1.24983,103.6,4.26396,215.839,0.01976,149.019,178.975,-2.56884
30105,1.24954,107.66,4.04828,176.866,0.02289,150.019,94.96425,-2.03808
30389,1.24949,109.635,3.90119,175.998,0.02217,151.019,10.95375,-1.51289
30673,1.24929,102.366,4.41669,198.779,0.02222,153.019,126.968,-2.28805
30957,1.24961,104.27,4.21671,212.19,0.01987,154.019,42.95775,-1.80827
31241,1.24971,102.463,4.40596,199.976,0.02203,156.0195,158.972,-2.51347
31525,1.24938,108.749,3.90447,197.771,0.01974,157.02,74.96175,-1.98875
31809,1.24949,103.018,4.44285,175.831,0.02527,159.02,190.976,-2.67333
32093,1.24941,105.471,4.19393,185.639,0.02259,160.02,106.966,-2.2386
32377,1.24971,104.263,4.25337,199.1491,0.02136,161.02,22.95525,-1.70286
32661,1.24937,101.783,4.53119,181.883,0.02491,163.02,138.97,-2.41561
32945,1.2496,103.127,4.32098,209.025,0.02067,164.0205,54.95925,-1.99346
33229,1.24962,103.397,4.31253,203.854,0.02115,166.021,170.974,-2.73412
33513,1.24969,104.235,4.25091,200.751,0.02118,167.021,86.96325,-2.17651
33797,1.24969,101.34,4.5525,187.324,0.0243,168.021,2.95275,-1.58045
34081,1.24953,101.04,4.58664,185.669,0.0247,170.021,118.967,-2.37141
34365,1.24973,100.97,4.54557,198.83,0.02286,171.021,34.95675,-1.8843
34649,1.24958,102.927,4.39366,191.06,0.023,173.022,150.971,-2.56059
34933,1.24956,99.72458,4.60532,216.776,0.02124,174.022,66.96075,-2.13554
35217,1.24976,104.125,4.24315,206.8994,0.02051,176.022,182.975,-2.86698
35501,1.24948,104.836,4.24047,187.603,0.0226,177.022,98.96475,-2.28715
35785,1.24965,100.104,4.62934,198.234,0.02335,178.022,14.95425,-1.77322
36069,1.24945,98.71622,4.85189,178.06,0.02725,180.0225,130.969,-2.5558
36353,1.2497,97.45774,4.89428,198.555,0.02465,181.023,46.95825,-2.05328
36637,1.24961,104.893,4.21299,194.962,0.02161,183.023,162.973,-2.78199
36921,1.24956,109.344,3.95344,167.067,0.02366,184.023,78.96225,-2.23038
37205,1.2497,115.357,3.52384,172.358,0.02044,186.023,194.977,-2.97597
37489,1.24938,105.815,4.21239,172.513,0.02442,187.023,110.966,-2.43266
37773,1.24962,99.99108,4.61897,204.356,0.0226,188.0235,26.95575,-1.97292
38057,1.24952,101.654,4.49792,194.033,0.02318,190.024,142.97,-2.71865
38341,1.24979,98.14341,4.78038,210.517,0.02271,191.024,58.95975,-2.23539
38625,1.24955,99.38328,4.72561,191.288,0.0247,193.024,174.974,-2.95985
38909,1.2496,100.887,4.56047,196.606,0.0232,194.024,90.96375,-2.40691
39193,1.24973,101.98,4.5244,179.439,0.02521,195.024,6.95325,-1.85094
39477,1.24956,98.20643,4.89014,181.329,0.02697,197.025,122.968,-2.643
39761,1.24958,108.069,3.97252,191.388,0.02076,198.025,38.95725,-2.14831
40000,1.24957,105.397,4.2698,167.269,0.02553,199.025,0,-1.8419