File: data/nanoindent_maps/Duplex Steel 2um.csv
Index,Load,Depth,HARDNESS,MODULUS,H/E,X Position,Y Position,Z Position
Integer,mN,nm,GPa,GPa,None,µm,µm,µm
1,3.99826,197.561,4.22895,222.5,0.01901,0,397.9545,-3.8946
283,3.99918,185.786,4.85702,211.458,0.02297,2.00025,233.982,-2.6143
565,3.99959,199.499,4.16725,212.479,0.01961,4.0005,69.96113,-1.35121
847,3.99927,201.747,4.12036,192.6465,0.02139,8.001,305.991,-2.93886
1129,3.99944,201.389,4.06288,222.309,0.01828,10.00125,141.97,-1.69132
1411,3.99933,201.182,4.09119,213.409,0.01917,14.00175,378,-3.3803
1693,3.99927,200.529,4.1193,213.445,0.0193,16.002,213.979,-2.14153
1975,3.99905,198.488,4.26258,194.058,0.02197,18.00225,49.95862,-0.90638
2257,3.9992,202.368,4.00642,229.861,0.01743,22.00275,285.988,-2.73272
2539,3.9993,204.523,3.9453,216.206,0.01825,24.003,121.968,-1.45463
2821,3.99925,199.97,4.16999,203.005,0.02054,28.0035,357.997,-3.22606
3103,3.99944,199.58,4.11912,232.837,0.01769,30.00375,193.977,-2.02068
3385,3.99902,216.371,3.5353,199.954,0.01768,32.004,29.95613,-0.74859
3667,3.9991,210.435,3.81105,175.649,0.0217,36.0045,265.986,-2.55895
3949,3.99938,199.533,4.16814,211.399,0.01972,38.00475,101.965,-1.37327
4231,3.99951,199.62,4.15698,214.487,0.01938,42.00525,337.995,-3.15698
4513,3.9993,211.718,3.67927,210.769,0.01746,44.0055,173.974,-1.94008
4795,3.9991,219.6689,3.43732,193.463,0.01777,46.00575,9.95363,-0.76186
5077,3.99935,215.144,3.54874,215.989,0.01643,50.00625,245.983,-2.56852
5359,3.99903,197.007,4.31355,200.079,0.02156,52.0065,81.96263,-1.36274
5641,3.99937,198.883,4.19674,211.552,0.01984,56.007,317.992,-3.13016
5923,3.99907,198.294,4.20615,218.46,0.01925,58.00725,153.972,-1.93696
6205,3.99925,205.3701,3.91798,212.889,0.0184,62.00775,389.9535,-3.70721
6487,3.9994,204.654,3.96596,204.539,0.01939,64.008,225.981,-2.54419
6769,3.99935,202.833,4.03398,207.807,0.01941,66.00825,61.96013,-1.3388
7051,3.99902,206.296,3.91574,197.483,0.01983,70.00875,297.99,-3.07276
7333,3.99942,196.28,4.33786,203.67,0.0213,72.009,133.969,-1.9348
7615,3.99899,204.608,3.97156,202.796,0.01958,76.0095,369.999,-3.68589
7897,3.99917,204.37,3.93719,223.223,0.01764,78.00975,205.978,-2.54269
8179,3.99899,202.409,4.04356,211.202,0.01915,80.01,41.95763,-1.29481
8461,3.9993,202.559,4.02043,218.961,0.01836,84.0105,277.987,-3.1166
8743,3.99909,203.418,3.98516,218.668,0.01822,86.01075,113.967,-1.88713
9025,3.99928,206.56,3.87141,212.497,0.01822,90.01125,349.996,-3.68804
9307,3.99904,197.758,4.25681,207.873,0.02048,92.0115,185.976,-2.45645
9589,3.99923,200.662,4.10959,215.128,0.0191,94.01175,21.95513,-1.31586
9871,3.99938,199.096,4.17306,217.455,0.01919,98.01225,257.985,-3.08528
10153,3.99925,199.275,4.13823,229.799,0.01801,100.0125,93.96413,-1.88915
10435,3.99901,195.601,4.37724,201.14,0.02176,104.013,329.994,-3.6815
10717,3.99886,197.785,4.24748,210.8937,0.02014,106.013,165.973,-2.47172
10999,3.999,197.034,4.2867,209.195,0.02049,108.0135,1.95263,-1.26695
11281,3.99925,207.127,3.88954,194.712,0.01998,112.014,237.982,-3.02472
11563,3.99895,200.398,4.15521,201.294,0.02064,114.014,73.96163,-1.8462
11845,3.99929,198.085,4.20999,220.977,0.01905,118.015,309.991,-3.65912
12127,3.99907,192.706,4.51835,201.736,0.0224,120.015,145.971,-2.43145
12409,3.99931,196.763,4.30589,206.908,0.02081,124.0155,381.9525,-4.19678
12691,3.99939,206.507,3.87714,210.834,0.01839,126.016,217.98,-3.039
12973,3.99902,203.091,4.06473,191.613,0.02121,128.016,53.95913,-1.80327
13255,3.99901,207.043,3.9211,184.122,0.0213,132.0165,289.989,-3.61437
13537,3.99914,204.221,3.98045,205.838,0.01934,134.017,125.968,-2.39842
13819,3.99909,200.618,4.12744,208.362,0.01981,138.017,361.998,-4.19961
14101,3.99915,195.968,4.36734,198.644,0.02199,140.0175,197.977,-3.00315
14383,3.99916,206.685,3.91969,189.922,0.02064,142.018,33.95663,-1.76853
14665,3.99911,200.051,4.14636,210.802,0.01967,146.018,269.986,-3.56694
14947,3.99917,191.999,4.49816,221.017,0.02035,148.0185,105.966,-2.39544
15229,3.99912,194.584,4.46289,190.1747,0.02347,152.019,341.995,-4.13454
15511,3.99904,198.782,4.19969,212.03,0.01981,154.019,177.975,-2.94004
15793,3.99926,199.932,4.1387,216.32,0.01913,156.0195,13.95413,-1.76893
16075,3.99902,189.352,4.70209,199.226,0.0236,160.02,249.984,-3.51491
16357,3.99907,213.381,3.70467,173.632,0.02134,162.02,85.96313,-2.39182
16639,3.99928,196.627,4.31246,206.833,0.02085,166.021,321.993,-4.1534
16921,3.99907,199.063,4.2405,192.633,0.02201,168.021,157.972,-2.91795
17203,3.9993,184.807,4.8433,234.262,0.02067,172.0215,393.954,-4.71429
17485,3.99908,197.432,4.31792,192.165,0.02247,174.022,229.981,-3.48656
17767,3.99944,207.236,3.85318,208.6355,0.01847,176.022,65.96063,-2.27722
18049,3.99924,205.953,3.93841,194.132,0.02029,180.0225,301.99,-4.05532
18331,3.99901,201.657,4.09698,202.509,0.02023,182.023,137.97,-2.87039
18613,3.99908,203.46,3.96998,225.348,0.01762,186.023,373.999,-4.64162
18895,3.99931,197.738,4.21498,225.75,0.01867,188.0235,209.979,-3.47749
19177,3.99887,204.286,3.9856,202.45,0.01969,190.024,45.95813,-2.23797
19459,3.99902,202.837,4.08307,189.065,0.0216,194.024,281.988,-4.05757
19741,3.99936,199.082,4.15161,227.462,0.01825,196.0245,117.967,-2.89276
20023,3.99903,190.367,4.60319,213.102,0.0216,200.025,353.997,-4.60531
20305,3.99929,220.9644,3.44213,172.149,0.02,202.025,189.976,-3.38886
20587,3.99875,205.582,3.96788,188.645,0.02103,204.0255,25.95563,-2.17266
20869,3.99911,187.686,4.78482,201.614,0.02373,208.026,261.985,-3.97512
21151,3.9991,203.846,3.99409,206.634,0.01933,210.026,97.96463,-2.82772
21433,3.99933,202.585,4.0144,221.3629,0.01813,214.027,333.994,-4.58179
21715,3.99922,192.957,4.4727,212.841,0.02101,216.027,169.974,-3.3601
21997,3.99899,204.403,3.98188,202.042,0.01971,218.027,5.95312,-2.11709
22279,3.99929,199.799,4.1955,196.596,0.02134,222.028,241.983,-3.91872
22561,3.99903,209.2938,3.7664,212.0932,0.01776,224.028,77.96213,-2.78591
22843,3.9992,217.207,3.50181,202.677,0.01728,228.0285,313.992,-4.49846
23125,3.99938,202.621,4.05522,202.816,0.01999,230.029,149.971,-3.31585
23407,3.99908,218.894,3.5122,171.978,0.02042,234.029,385.953,-5.09988
23689,3.99931,196.723,4.24928,231.126,0.01839,236.0295,221.98,-3.92943
23971,3.99914,196.203,4.34662,201.798,0.02154,238.03,57.95962,-2.73459
24253,3.99908,198.972,4.20834,205.336,0.02049,242.03,293.989,-4.48112
24535,3.99929,198.868,4.15847,228.652,0.01819,244.0305,129.969,-3.2946
24817,3.99938,203.21,3.97751,226.922,0.01753,248.031,365.998,-5.05627
25099,3.99922,198.206,4.21252,217.511,0.01937,250.031,201.978,-3.86221
25381,3.99893,198.908,4.24292,194.1238,0.02186,252.0315,37.95713,-2.64551
25663,3.99939,200.683,4.11982,210.476,0.01957,256.032,273.987,-4.48435
25945,3.99894,192.221,4.52554,207.248,0.02184,258.032,109.966,-3.24046
26227,3.99904,194.974,4.41664,198.228,0.02228,262.033,345.996,-5.05103
26509,3.9991,193.8639,4.4351,210.264,0.02109,264.033,181.975,-3.83571
26791,3.99885,200.932,4.13914,198.487,0.02085,266.033,17.95463,-2.61245
27073,3.99917,197.829,4.24018,213.147,0.01989,270.034,253.984,-4.41531
27355,3.99926,214.822,3.59214,198.582,0.01809,272.034,89.96363,-3.23763
27637,3.99917,205.417,3.94054,202.009,0.01951,276.0345,325.993,-5.02909
27919,3.99923,203.368,4.01408,206.6655,0.01942,278.035,161.973,-3.82039
28201,3.99912,197.137,4.29402,204.804,0.02097,282.035,397.9545,-5.59338
28483,3.99939,200.128,4.1213,220.312,0.01871,284.0355,233.982,-4.4446
28765,3.99908,206.4618,3.90136,200.693,0.01944,286.036,69.96113,-3.23616
29047,3.99893,197.43,4.27296,207.436,0.0206,290.036,305.991,-4.99447
29329,3.99892,204.923,3.98751,191.496,0.02082,292.0365,141.97,-3.81644
29611,3.99904,197.1735,4.26264,216.114,0.01972,296.037,378,-5.58601
29893,3.9993,198.595,4.20634,212.863,0.01976,298.037,213.979,-4.44013
30175,3.99867,199.902,4.16684,205.082,0.02032,300.0375,49.95862,-3.2052
30457,3.99904,216.426,3.51987,207.2,0.01699,304.038,285.988,-5.02541
30739,3.9991,207.394,3.84578,209.0263,0.0184,306.038,121.968,-3.79161
31021,3.99929,206.619,3.84614,224.261,0.01715,310.039,357.997,-5.58287
31303,3.99898,201.831,4.04982,219.372,0.01846,312.039,193.977,-4.43007
31585,3.9991,202.168,4.10194,192.583,0.0213,314.039,29.95613,-3.19034
31867,3.99903,207.429,3.89082,189.458,0.02054,318.04,265.986,-4.99382
32149,3.99886,196.156,4.35437,199.837,0.02179,320.04,101.965,-3.79618
32431,3.99923,197.224,4.28225,207.672,0.02062,324.0405,337.995,-5.60868
32713,3.99916,194.3182,4.37275,225.933,0.01935,326.041,173.974,-4.38772
32995,3.99904,200.293,4.14885,205.511,0.02019,328.041,9.95363,-3.18663
33277,3.99954,198.5966,4.17093,228.559,0.01825,332.0415,245.983,-5.00135
33559,3.99954,156.389,7.03513,226.132,0.03111,334.042,81.96263,-3.88737
33841,3.99919,202.277,4.01795,225.876,0.01779,338.042,317.992,-5.61384
34123,3.99897,193.851,4.4573,202.877,0.02197,340.0425,153.972,-4.40573
34405,3.9993,200.84,4.14094,199.511,0.02076,344.043,389.9535,-6.2174
34687,3.99913,201.992,4.04995,216.266,0.01873,346.043,225.981,-5.01602
34969,3.99936,198.325,4.18378,228.067,0.01834,348.0435,61.96013,-3.8547
35251,3.99924,197.389,4.27019,209.3397,0.0204,352.044,297.99,-5.6168
35533,3.99897,202.738,4.04184,206.031,0.01962,354.044,133.969,-4.43939
35815,3.99905,200.943,4.11664,206.996,0.01989,358.045,369.999,-6.20282
36097,3.99914,193.71,4.50391,190.981,0.02358,360.045,205.978,-5.01893
36379,3.99899,200.682,4.14381,200.892,0.02063,362.045,41.95763,-3.82344
36661,3.99906,195.986,4.36715,198.396,0.02201,366.046,277.987,-5.65684
36943,3.99923,194.289,4.41792,209.0573,0.02113,368.046,113.967,-4.44895
37225,3.99908,194.447,4.40069,212.436,0.02072,372.0465,349.996,-6.24159
37507,3.99934,200.591,4.10748,217.4554,0.01889,374.047,185.976,-5.1002
37789,3.99922,201.054,4.11063,207.544,0.01981,376.047,21.95513,-3.86404
38071,3.99922,198.9581,4.15875,226.588,0.01835,380.0475,257.985,-5.68077
38353,3.99919,199.191,4.1439,228.778,0.01811,382,93.96413,-4.51619
38635,3.99908,199.3187,4.19028,206.268,0.02031,386.001,329.994,-6.25401
38917,3.9993,200.548,4.09912,222.107,0.01846,388.001,165.973,-5.11533
39199,3.9992,195.919,4.32764,213.549,0.02027,390.001,1.95263,-3.8369
39481,3.999,201.124,4.08696,216.187,0.0189,394.002,237.982,-5.74432
39763,3.99897,196.327,4.35251,197.815,0.022,396.002,73.96163,-4.50686
40000,3.99938,182.299,5.07887,206.837,0.02455,398.002,0,-3.92827